#
# Sample name: Sample title.                                                   
# Sample id:   
# Sample type: 
# User name:   
# Sample description: 
#
# Start time:    2019-03-22, 13:40:17
# Real time (s): 307.960
# Live time (s): 300.000
#
# Total counts:  1222569
#
# Left marker:  237 (458.873 keV)
# Right marker: 274 (534.434 keV)
# Counts:  45919
#
# Energy calibration coefficients ( E = sum(Ai * n**i) )
#     A0: -25.120346
#     A1: 2.042167
#     A2: 0.000000
#     A3: 0.000000
# Energy unit: keV
#
# Channel data
# n	energy	counts	rate
#-----------------------------------------------------------------------
1	-23.078	0	0
2	-21.036	0	0
3	-18.994	0	0
4	-16.952	0	0
5	-14.910	0	0
6	-12.867	0	0
7	-10.825	0	0
8	-8.783	0	0
9	-6.741	82	0.273333
10	-4.699	754	2.51333
11	-2.657	1105	3.68333
12	-0.614	1162	3.87333
13	1.428	1165	3.88333
14	3.470	1230	4.1
15	5.512	1170	3.9
16	7.554	1241	4.13667
17	9.597	1256	4.18667
18	11.639	1306	4.35333
19	13.681	1279	4.26333
20	15.723	1313	4.37667
21	17.765	1375	4.58333
22	19.807	1327	4.42333
23	21.850	1281	4.27
24	23.892	1314	4.38
25	25.934	1249	4.16333
26	27.976	1307	4.35667
27	30.018	1259	4.19667
28	32.060	1311	4.37
29	34.103	1383	4.61
30	36.145	1375	4.58333
31	38.187	1409	4.69667
32	40.229	1436	4.78667
33	42.271	1359	4.53
34	44.313	1323	4.41
35	46.356	1330	4.43333
36	48.398	1297	4.32333
37	50.440	1356	4.52
38	52.482	1313	4.37667
39	54.524	1360	4.53333
40	56.566	1379	4.59667
41	58.609	1341	4.47
42	60.651	1332	4.44
43	62.693	1426	4.75333
44	64.735	1333	4.44333
45	66.777	1315	4.38333
46	68.819	1413	4.71
47	70.862	1415	4.71667
48	72.904	1491	4.97
49	74.946	1531	5.10333
50	76.988	1660	5.53333
51	79.030	1730	5.76667
52	81.072	1731	5.77
53	83.115	1823	6.07667
54	85.157	1833	6.11
55	87.199	1871	6.23667
56	89.241	1807	6.02333
57	91.283	1755	5.85
58	93.325	1646	5.48667
59	95.368	1593	5.31
60	97.410	1565	5.21667
61	99.452	1533	5.11
62	101.494	1474	4.91333
63	103.536	1516	5.05333
64	105.578	1408	4.69333
65	107.621	1461	4.87
66	109.663	1348	4.49333
67	111.705	1318	4.39333
68	113.747	1285	4.28333
69	115.789	1329	4.43
70	117.831	1312	4.37333
71	119.874	1254	4.18
72	121.916	1291	4.30333
73	123.958	1278	4.26
74	126.000	1258	4.19333
75	128.042	1300	4.33333
76	130.084	1317	4.39
77	132.127	1256	4.18667
78	134.169	1287	4.29
79	136.211	1304	4.34667
80	138.253	1264	4.21333
81	140.295	1326	4.42
82	142.337	1279	4.26333
83	144.380	1333	4.44333
84	146.422	1334	4.44667
85	148.464	1313	4.37667
86	150.506	1284	4.28
87	152.548	1341	4.47
88	154.590	1389	4.63
89	156.633	1265	4.21667
90	158.675	1302	4.34
91	160.717	1344	4.48
92	162.759	1348	4.49333
93	164.801	1344	4.48
94	166.843	1360	4.53333
95	168.886	1255	4.18333
96	170.928	1471	4.90333
97	172.970	1375	4.58333
98	175.012	1340	4.46667
99	177.054	1388	4.62667
100	179.096	1314	4.38
101	181.139	1394	4.64667
102	183.181	1337	4.45667
103	185.223	1365	4.55
104	187.265	1287	4.29
105	189.307	1358	4.52667
106	191.349	1422	4.74
107	193.392	1329	4.43
108	195.434	1335	4.45
109	197.476	1380	4.6
110	199.518	1399	4.66333
111	201.560	1323	4.41
112	203.602	1412	4.70667
113	205.645	1398	4.66
114	207.687	1407	4.69
115	209.729	1346	4.48667
116	211.771	1399	4.66333
117	213.813	1396	4.65333
118	215.855	1361	4.53667
119	217.898	1446	4.82
120	219.940	1360	4.53333
121	221.982	1338	4.46
122	224.024	1383	4.61
123	226.066	1323	4.41
124	228.108	1450	4.83333
125	230.151	1435	4.78333
126	232.193	1486	4.95333
127	234.235	1475	4.91667
128	236.277	1494	4.98
129	238.319	1434	4.78
130	240.361	1413	4.71
131	242.404	1548	5.16
132	244.446	1507	5.02333
133	246.488	1530	5.1
134	248.530	1610	5.36667
135	250.572	1572	5.24
136	252.614	1615	5.38333
137	254.657	1695	5.65
138	256.699	1650	5.5
139	258.741	1755	5.85
140	260.783	1832	6.10667
141	262.825	1816	6.05333
142	264.867	1868	6.22667
143	266.910	1896	6.32
144	268.952	1977	6.59
145	270.994	1986	6.62
146	273.036	2055	6.85
147	275.078	2066	6.88667
148	277.120	2066	6.88667
149	279.163	2066	6.88667
150	281.205	2118	7.06
151	283.247	2134	7.11333
152	285.289	2037	6.79
153	287.331	2034	6.78
154	289.373	1917	6.39
155	291.416	2061	6.87
156	293.458	1987	6.62333
157	295.500	1986	6.62
158	297.542	1961	6.53667
159	299.584	2079	6.93
160	301.626	1964	6.54667
161	303.669	1945	6.48333
162	305.711	1951	6.50333
163	307.753	1852	6.17333
164	309.795	1870	6.23333
165	311.837	1872	6.24
166	313.879	1852	6.17333
167	315.922	1767	5.89
168	317.964	1785	5.95
169	320.006	1793	5.97667
170	322.048	1856	6.18667
171	324.090	1712	5.70667
172	326.132	1704	5.68
173	328.175	1653	5.51
174	330.217	1772	5.90667
175	332.259	1687	5.62333
176	334.301	1624	5.41333
177	336.343	1744	5.81333
178	338.385	1705	5.68333
179	340.428	1703	5.67667
180	342.470	1613	5.37667
181	344.512	1588	5.29333
182	346.554	1662	5.54
183	348.596	1620	5.4
184	350.638	1625	5.41667
185	352.681	1598	5.32667
186	354.723	1564	5.21333
187	356.765	1609	5.36333
188	358.807	1559	5.19667
189	360.849	1551	5.17
190	362.891	1505	5.01667
191	364.934	1557	5.19
192	366.976	1515	5.05
193	369.018	1600	5.33333
194	371.060	1603	5.34333
195	373.102	1510	5.03333
196	375.144	1550	5.16667
197	377.187	1536	5.12
198	379.229	1517	5.05667
199	381.271	1507	5.02333
200	383.313	1541	5.13667
201	385.355	1483	4.94333
202	387.397	1456	4.85333
203	389.440	1543	5.14333
204	391.482	1457	4.85667
205	393.524	1556	5.18667
206	395.566	1501	5.00333
207	397.608	1496	4.98667
208	399.650	1478	4.92667
209	401.693	1455	4.85
210	403.735	1447	4.82333
211	405.777	1426	4.75333
212	407.819	1406	4.68667
213	409.861	1385	4.61667
214	411.903	1444	4.81333
215	413.946	1360	4.53333
216	415.988	1407	4.69
217	418.030	1477	4.92333
218	420.072	1330	4.43333
219	422.114	1373	4.57667
220	424.156	1393	4.64333
221	426.199	1428	4.76
222	428.241	1363	4.54333
223	430.283	1340	4.46667
224	432.325	1357	4.52333
225	434.367	1325	4.41667
226	436.409	1363	4.54333
227	438.452	1330	4.43333
228	440.494	1302	4.34
229	442.536	1316	4.38667
230	444.578	1306	4.35333
231	446.620	1282	4.27333
232	448.662	1326	4.42
233	450.705	1348	4.49333
234	452.747	1333	4.44333
235	454.789	1273	4.24333
236	456.831	1273	4.24333
237	458.873	1311	4.37
238	460.916	1352	4.50667
239	462.958	1295	4.31667
240	465.000	1327	4.42333
241	467.042	1262	4.20667
242	469.084	1251	4.17
243	471.126	1216	4.05333
244	473.169	1293	4.31
245	475.211	1265	4.21667
246	477.253	1301	4.33667
247	479.295	1332	4.44
248	481.337	1265	4.21667
249	483.379	1238	4.12667
250	485.422	1213	4.04333
251	487.464	1280	4.26667
252	489.506	1215	4.05
253	491.548	1212	4.04
254	493.590	1258	4.19333
255	495.632	1194	3.98
256	497.675	1232	4.10667
257	499.717	1248	4.16
258	501.759	1226	4.08667
259	503.801	1194	3.98
260	505.843	1256	4.18667
261	507.885	1230	4.1
262	509.928	1243	4.14333
263	511.970	1181	3.93667
264	514.012	1181	3.93667
265	516.054	1188	3.96
266	518.096	1252	4.17333
267	520.138	1211	4.03667
268	522.181	1232	4.10667
269	524.223	1208	4.02667
270	526.265	1265	4.21667
271	528.307	1229	4.09667
272	530.349	1176	3.92
273	532.391	1233	4.11
274	534.434	1165	3.88333
275	536.476	1205	4.01667
276	538.518	1202	4.00667
277	540.560	1239	4.13
278	542.602	1206	4.02
279	544.644	1240	4.13333
280	546.687	1165	3.88333
281	548.729	1133	3.77667
282	550.771	1116	3.72
283	552.813	1233	4.11
284	554.855	1168	3.89333
285	556.897	1247	4.15667
286	558.940	1282	4.27333
287	560.982	1149	3.83
288	563.024	1209	4.03
289	565.066	1229	4.09667
290	567.108	1176	3.92
291	569.150	1213	4.04333
292	571.193	1170	3.9
293	573.235	1170	3.9
294	575.277	1214	4.04667
295	577.319	1257	4.19
296	579.361	1140	3.8
297	581.403	1191	3.97
298	583.446	1186	3.95333
299	585.488	1207	4.02333
300	587.530	1210	4.03333
301	589.572	1235	4.11667
302	591.614	1171	3.90333
303	593.656	1182	3.94
304	595.699	1208	4.02667
305	597.741	1167	3.89
306	599.783	1172	3.90667
307	601.825	1185	3.95
308	603.867	1190	3.96667
309	605.909	1142	3.80667
310	607.952	1223	4.07667
311	609.994	1175	3.91667
312	612.036	1216	4.05333
313	614.078	1185	3.95
314	616.120	1165	3.88333
315	618.162	1213	4.04333
316	620.205	1189	3.96333
317	622.247	1172	3.90667
318	624.289	1178	3.92667
319	626.331	1189	3.96333
320	628.373	1262	4.20667
321	630.415	1155	3.85
322	632.458	1189	3.96333
323	634.500	1201	4.00333
324	636.542	1177	3.92333
325	638.584	1240	4.13333
326	640.626	1162	3.87333
327	642.668	1153	3.84333
328	644.711	1156	3.85333
329	646.753	1241	4.13667
330	648.795	1234	4.11333
331	650.837	1222	4.07333
332	652.879	1147	3.82333
333	654.921	1209	4.03
334	656.964	1151	3.83667
335	659.006	1178	3.92667
336	661.048	1187	3.95667
337	663.090	1265	4.21667
338	665.132	1168	3.89333
339	667.174	1204	4.01333
340	669.217	1177	3.92333
341	671.259	1112	3.70667
342	673.301	1260	4.2
343	675.343	1198	3.99333
344	677.385	1164	3.88
345	679.427	1176	3.92
346	681.470	1177	3.92333
347	683.512	1164	3.88
348	685.554	1136	3.78667
349	687.596	1173	3.91
350	689.638	1119	3.73
351	691.680	1152	3.84
352	693.723	1195	3.98333
353	695.765	1165	3.88333
354	697.807	1207	4.02333
355	699.849	1188	3.96
356	701.891	1200	4
357	703.933	1133	3.77667
358	705.976	1226	4.08667
359	708.018	1176	3.92
360	710.060	1207	4.02333
361	712.102	1137	3.79
362	714.144	1195	3.98333
363	716.186	1073	3.57667
364	718.229	1137	3.79
365	720.271	1121	3.73667
366	722.313	1174	3.91333
367	724.355	1165	3.88333
368	726.397	1231	4.10333
369	728.439	1152	3.84
370	730.482	1221	4.07
371	732.524	1107	3.69
372	734.566	1164	3.88
373	736.608	1120	3.73333
374	738.650	1174	3.91333
375	740.692	1171	3.90333
376	742.735	1177	3.92333
377	744.777	1205	4.01667
378	746.819	1110	3.7
379	748.861	1148	3.82667
380	750.903	1110	3.7
381	752.945	1184	3.94667
382	754.988	1152	3.84
383	757.030	1176	3.92
384	759.072	1172	3.90667
385	761.114	1194	3.98
386	763.156	1176	3.92
387	765.198	1208	4.02667
388	767.241	1181	3.93667
389	769.283	1169	3.89667
390	771.325	1209	4.03
391	773.367	1200	4
392	775.409	1181	3.93667
393	777.451	1174	3.91333
394	779.494	1162	3.87333
395	781.536	1176	3.92
396	783.578	1225	4.08333
397	785.620	1234	4.11333
398	787.662	1143	3.81
399	789.704	1231	4.10333
400	791.747	1167	3.89
401	793.789	1222	4.07333
402	795.831	1170	3.9
403	797.873	1234	4.11333
404	799.915	1165	3.88333
405	801.957	1177	3.92333
406	804.000	1175	3.91667
407	806.042	1213	4.04333
408	808.084	1218	4.06
409	810.126	1220	4.06667
410	812.168	1187	3.95667
411	814.210	1226	4.08667
412	816.253	1187	3.95667
413	818.295	1186	3.95333
414	820.337	1209	4.03
415	822.379	1231	4.10333
416	824.421	1209	4.03
417	826.463	1199	3.99667
418	828.506	1250	4.16667
419	830.548	1224	4.08
420	832.590	1273	4.24333
421	834.632	1187	3.95667
422	836.674	1224	4.08
423	838.716	1236	4.12
424	840.759	1214	4.04667
425	842.801	1190	3.96667
426	844.843	1234	4.11333
427	846.885	1196	3.98667
428	848.927	1178	3.92667
429	850.969	1228	4.09333
430	853.012	1217	4.05667
431	855.054	1250	4.16667
432	857.096	1159	3.86333
433	859.138	1250	4.16667
434	861.180	1183	3.94333
435	863.222	1244	4.14667
436	865.265	1189	3.96333
437	867.307	1184	3.94667
438	869.349	1230	4.1
439	871.391	1276	4.25333
440	873.433	1245	4.15
441	875.475	1316	4.38667
442	877.518	1204	4.01333
443	879.560	1254	4.18
444	881.602	1265	4.21667
445	883.644	1262	4.20667
446	885.686	1259	4.19667
447	887.728	1205	4.01667
448	889.771	1268	4.22667
449	891.813	1264	4.21333
450	893.855	1223	4.07667
451	895.897	1173	3.91
452	897.939	1346	4.48667
453	899.981	1175	3.91667
454	902.024	1283	4.27667
455	904.066	1238	4.12667
456	906.108	1243	4.14333
457	908.150	1297	4.32333
458	910.192	1306	4.35333
459	912.235	1200	4
460	914.277	1300	4.33333
461	916.319	1233	4.11
462	918.361	1251	4.17
463	920.403	1233	4.11
464	922.445	1219	4.06333
465	924.488	1288	4.29333
466	926.530	1307	4.35667
467	928.572	1301	4.33667
468	930.614	1256	4.18667
469	932.656	1288	4.29333
470	934.698	1299	4.33
471	936.741	1243	4.14333
472	938.783	1256	4.18667
473	940.825	1278	4.26
474	942.867	1268	4.22667
475	944.909	1256	4.18667
476	946.951	1204	4.01333
477	948.994	1309	4.36333
478	951.036	1280	4.26667
479	953.078	1258	4.19333
480	955.120	1271	4.23667
481	957.162	1346	4.48667
482	959.204	1260	4.2
483	961.247	1316	4.38667
484	963.289	1304	4.34667
485	965.331	1244	4.14667
486	967.373	1314	4.38
487	969.415	1302	4.34
488	971.457	1270	4.23333
489	973.500	1287	4.29
490	975.542	1288	4.29333
491	977.584	1317	4.39
492	979.626	1323	4.41
493	981.668	1354	4.51333
494	983.710	1330	4.43333
495	985.753	1299	4.33
496	987.795	1347	4.49
497	989.837	1404	4.68
498	991.879	1337	4.45667
499	993.921	1376	4.58667
500	995.963	1379	4.59667
501	998.006	1317	4.39
502	1000.048	1314	4.38
503	1002.090	1300	4.33333
504	1004.132	1322	4.40667
505	1006.174	1382	4.60667
506	1008.216	1392	4.64
507	1010.259	1357	4.52333
508	1012.301	1380	4.6
509	1014.343	1315	4.38333
510	1016.385	1422	4.74
511	1018.427	1419	4.73
512	1020.469	1374	4.58
513	1022.512	1420	4.73333
514	1024.554	1393	4.64333
515	1026.596	1393	4.64333
516	1028.638	1387	4.62333
517	1030.680	1438	4.79333
518	1032.722	1406	4.68667
519	1034.765	1446	4.82
520	1036.807	1362	4.54
521	1038.849	1376	4.58667
522	1040.891	1391	4.63667
523	1042.933	1426	4.75333
524	1044.975	1404	4.68
525	1047.018	1406	4.68667
526	1049.060	1445	4.81667
527	1051.102	1465	4.88333
528	1053.144	1475	4.91667
529	1055.186	1467	4.89
530	1057.228	1435	4.78333
531	1059.271	1466	4.88667
532	1061.313	1496	4.98667
533	1063.355	1457	4.85667
534	1065.397	1453	4.84333
535	1067.439	1479	4.93
536	1069.481	1503	5.01
537	1071.524	1472	4.90667
538	1073.566	1502	5.00667
539	1075.608	1512	5.04
540	1077.650	1445	4.81667
541	1079.692	1517	5.05667
542	1081.734	1549	5.16333
543	1083.777	1583	5.27667
544	1085.819	1558	5.19333
545	1087.861	1547	5.15667
546	1089.903	1494	4.98
547	1091.945	1532	5.10667
548	1093.987	1489	4.96333
549	1096.030	1519	5.06333
550	1098.072	1501	5.00333
551	1100.114	1536	5.12
552	1102.156	1551	5.17
553	1104.198	1607	5.35667
554	1106.240	1579	5.26333
555	1108.283	1535	5.11667
556	1110.325	1572	5.24
557	1112.367	1532	5.10667
558	1114.409	1495	4.98333
559	1116.451	1568	5.22667
560	1118.493	1592	5.30667
561	1120.536	1596	5.32
562	1122.578	1610	5.36667
563	1124.620	1532	5.10667
564	1126.662	1578	5.26
565	1128.704	1576	5.25333
566	1130.746	1633	5.44333
567	1132.789	1536	5.12
568	1134.831	1603	5.34333
569	1136.873	1571	5.23667
570	1138.915	1614	5.38
571	1140.957	1581	5.27
572	1142.999	1572	5.24
573	1145.042	1608	5.36
574	1147.084	1577	5.25667
575	1149.126	1515	5.05
576	1151.168	1520	5.06667
577	1153.210	1586	5.28667
578	1155.252	1595	5.31667
579	1157.295	1511	5.03667
580	1159.337	1524	5.08
581	1161.379	1469	4.89667
582	1163.421	1427	4.75667
583	1165.463	1455	4.85
584	1167.505	1502	5.00667
585	1169.548	1404	4.68
586	1171.590	1434	4.78
587	1173.632	1395	4.65
588	1175.674	1487	4.95667
589	1177.716	1406	4.68667
590	1179.758	1436	4.78667
591	1181.801	1380	4.6
592	1183.843	1357	4.52333
593	1185.885	1348	4.49333
594	1187.927	1339	4.46333
595	1189.969	1303	4.34333
596	1192.011	1308	4.36
597	1194.054	1291	4.30333
598	1196.096	1250	4.16667
599	1198.138	1288	4.29333
600	1200.180	1277	4.25667
601	1202.222	1277	4.25667
602	1204.264	1253	4.17667
603	1206.307	1257	4.19
604	1208.349	1180	3.93333
605	1210.391	1220	4.06667
606	1212.433	1203	4.01
607	1214.475	1193	3.97667
608	1216.517	1155	3.85
609	1218.560	1099	3.66333
610	1220.602	1158	3.86
611	1222.644	1123	3.74333
612	1224.686	1091	3.63667
613	1226.728	1111	3.70333
614	1228.770	1091	3.63667
615	1230.813	1031	3.43667
616	1232.855	1060	3.53333
617	1234.897	1069	3.56333
618	1236.939	1046	3.48667
619	1238.981	1088	3.62667
620	1241.023	1078	3.59333
621	1243.066	1033	3.44333
622	1245.108	1048	3.49333
623	1247.150	1046	3.48667
624	1249.192	1034	3.44667
625	1251.234	958	3.19333
626	1253.276	1098	3.66
627	1255.319	990	3.3
628	1257.361	1051	3.50333
629	1259.403	1008	3.36
630	1261.445	1021	3.40333
631	1263.487	1044	3.48
632	1265.529	1024	3.41333
633	1267.572	1032	3.44
634	1269.614	995	3.31667
635	1271.656	981	3.27
636	1273.698	943	3.14333
637	1275.740	1034	3.44667
638	1277.782	1004	3.34667
639	1279.825	1022	3.40667
640	1281.867	990	3.3
641	1283.909	979	3.26333
642	1285.951	978	3.26
643	1287.993	993	3.31
644	1290.035	990	3.3
645	1292.078	1010	3.36667
646	1294.120	1059	3.53
647	1296.162	1030	3.43333
648	1298.204	1035	3.45
649	1300.246	963	3.21
650	1302.288	1008	3.36
651	1304.331	977	3.25667
652	1306.373	989	3.29667
653	1308.415	949	3.16333
654	1310.457	948	3.16
655	1312.499	987	3.29
656	1314.541	1009	3.36333
657	1316.584	966	3.22
658	1318.626	990	3.3
659	1320.668	1029	3.43
660	1322.710	949	3.16333
661	1324.752	961	3.20333
662	1326.794	975	3.25
663	1328.837	939	3.13
664	1330.879	973	3.24333
665	1332.921	995	3.31667
666	1334.963	917	3.05667
667	1337.005	915	3.05
668	1339.047	920	3.06667
669	1341.090	908	3.02667
670	1343.132	961	3.20333
671	1345.174	929	3.09667
672	1347.216	911	3.03667
673	1349.258	899	2.99667
674	1351.300	889	2.96333
675	1353.343	829	2.76333
676	1355.385	842	2.80667
677	1357.427	883	2.94333
678	1359.469	898	2.99333
679	1361.511	852	2.84
680	1363.554	842	2.80667
681	1365.596	850	2.83333
682	1367.638	864	2.88
683	1369.680	797	2.65667
684	1371.722	805	2.68333
685	1373.764	712	2.37333
686	1375.807	770	2.56667
687	1377.849	765	2.55
688	1379.891	759	2.53
689	1381.933	735	2.45
690	1383.975	745	2.48333
691	1386.017	714	2.38
692	1388.060	736	2.45333
693	1390.102	740	2.46667
694	1392.144	728	2.42667
695	1394.186	742	2.47333
696	1396.228	726	2.42
697	1398.270	815	2.71667
698	1400.313	779	2.59667
699	1402.355	775	2.58333
700	1404.397	853	2.84333
701	1406.439	854	2.84667
702	1408.481	912	3.04
703	1410.523	953	3.17667
704	1412.566	937	3.12333
705	1414.608	988	3.29333
706	1416.650	1031	3.43667
707	1418.692	1085	3.61667
708	1420.734	1134	3.78
709	1422.776	1219	4.06333
710	1424.819	1262	4.20667
711	1426.861	1309	4.36333
712	1428.903	1408	4.69333
713	1430.945	1502	5.00667
714	1432.987	1605	5.35
715	1435.029	1708	5.69333
716	1437.072	1775	5.91667
717	1439.114	1944	6.48
718	1441.156	2052	6.84
719	1443.198	2126	7.08667
720	1445.240	2228	7.42667
721	1447.282	2390	7.96667
722	1449.325	2407	8.02333
723	1451.367	2503	8.34333
724	1453.409	2681	8.93667
725	1455.451	2898	9.66
726	1457.493	2920	9.73333
727	1459.535	3064	10.2133
728	1461.578	3131	10.4367
729	1463.620	3331	11.1033
730	1465.662	3230	10.7667
731	1467.704	3501	11.67
732	1469.746	3480	11.6
733	1471.788	3570	11.9
734	1473.831	3515	11.7167
735	1475.873	3698	12.3267
736	1477.915	3803	12.6767
737	1479.957	3716	12.3867
738	1481.999	3710	12.3667
739	1484.041	3698	12.3267
740	1486.084	3675	12.25
741	1488.126	3676	12.2533
742	1490.168	3736	12.4533
743	1492.210	3661	12.2033
744	1494.252	3458	11.5267
745	1496.294	3467	11.5567
746	1498.337	3386	11.2867
747	1500.379	3353	11.1767
748	1502.421	3186	10.62
749	1504.463	3079	10.2633
750	1506.505	2950	9.83333
751	1508.547	2789	9.29667
752	1510.590	2512	8.37333
753	1512.632	2616	8.72
754	1514.674	2344	7.81333
755	1516.716	2318	7.72667
756	1518.758	2171	7.23667
757	1520.800	1987	6.62333
758	1522.843	1886	6.28667
759	1524.885	1736	5.78667
760	1526.927	1632	5.44
761	1528.969	1441	4.80333
762	1531.011	1365	4.55
763	1533.053	1259	4.19667
764	1535.096	1170	3.9
765	1537.138	1106	3.68667
766	1539.180	954	3.18
767	1541.222	905	3.01667
768	1543.264	823	2.74333
769	1545.306	716	2.38667
770	1547.349	713	2.37667
771	1549.391	654	2.18
772	1551.433	569	1.89667
773	1553.475	530	1.76667
774	1555.517	461	1.53667
775	1557.559	437	1.45667
776	1559.602	381	1.27
777	1561.644	374	1.24667
778	1563.686	329	1.09667
779	1565.728	315	1.05
780	1567.770	330	1.1
781	1569.812	300	1
782	1571.855	310	1.03333
783	1573.897	302	1.00667
784	1575.939	316	1.05333
785	1577.981	315	1.05
786	1580.023	278	0.926667
787	1582.065	302	1.00667
788	1584.108	289	0.963333
789	1586.150	302	1.00667
790	1588.192	335	1.11667
791	1590.234	318	1.06
792	1592.276	323	1.07667
793	1594.318	388	1.29333
794	1596.361	378	1.26
795	1598.403	429	1.43
796	1600.445	414	1.38
797	1602.487	468	1.56
798	1604.529	490	1.63333
799	1606.571	498	1.66
800	1608.614	528	1.76
801	1610.656	560	1.86667
802	1612.698	658	2.19333
803	1614.740	707	2.35667
804	1616.782	751	2.50333
805	1618.824	816	2.72
806	1620.867	871	2.90333
807	1622.909	918	3.06
808	1624.951	957	3.19
809	1626.993	1083	3.61
810	1629.035	1108	3.69333
811	1631.077	1256	4.18667
812	1633.120	1254	4.18
813	1635.162	1370	4.56667
814	1637.204	1467	4.89
815	1639.246	1555	5.18333
816	1641.288	1680	5.6
817	1643.330	1747	5.82333
818	1645.373	1776	5.92
819	1647.415	1988	6.62667
820	1649.457	2040	6.8
821	1651.499	2086	6.95333
822	1653.541	2314	7.71333
823	1655.583	2369	7.89667
824	1657.626	2332	7.77333
825	1659.668	2406	8.02
826	1661.710	2460	8.2
827	1663.752	2567	8.55667
828	1665.794	2637	8.79
829	1667.836	2707	9.02333
830	1669.879	2756	9.18667
831	1671.921	2884	9.61333
832	1673.963	2851	9.50333
833	1676.005	2936	9.78667
834	1678.047	3016	10.0533
835	1680.089	2906	9.68667
836	1682.132	2977	9.92333
837	1684.174	3039	10.13
838	1686.216	2949	9.83
839	1688.258	2829	9.43
840	1690.300	2840	9.46667
841	1692.342	2711	9.03667
842	1694.385	2699	8.99667
843	1696.427	2855	9.51667
844	1698.469	2665	8.88333
845	1700.511	2618	8.72667
846	1702.553	2466	8.22
847	1704.595	2408	8.02667
848	1706.638	2328	7.76
849	1708.680	2263	7.54333
850	1710.722	2126	7.08667
851	1712.764	2046	6.82
852	1714.806	2044	6.81333
853	1716.848	1919	6.39667
854	1718.891	1802	6.00667
855	1720.933	1632	5.44
856	1722.975	1613	5.37667
857	1725.017	1412	4.70667
858	1727.059	1391	4.63667
859	1729.101	1332	4.44
860	1731.144	1174	3.91333
861	1733.186	1100	3.66667
862	1735.228	1006	3.35333
863	1737.270	1008	3.36
864	1739.312	874	2.91333
865	1741.354	742	2.47333
866	1743.397	713	2.37667
867	1745.439	641	2.13667
868	1747.481	629	2.09667
869	1749.523	580	1.93333
870	1751.565	489	1.63
871	1753.607	450	1.5
872	1755.650	439	1.46333
873	1757.692	359	1.19667
874	1759.734	379	1.26333
875	1761.776	339	1.13
876	1763.818	306	1.02
877	1765.860	264	0.88
878	1767.903	248	0.826667
879	1769.945	222	0.74
880	1771.987	202	0.673333
881	1774.029	211	0.703333
882	1776.071	185	0.616667
883	1778.113	205	0.683333
884	1780.156	196	0.653333
885	1782.198	173	0.576667
886	1784.240	160	0.533333
887	1786.282	156	0.52
888	1788.324	156	0.52
889	1790.366	152	0.506667
890	1792.409	160	0.533333
891	1794.451	122	0.406667
892	1796.493	142	0.473333
893	1798.535	132	0.44
894	1800.577	128	0.426667
895	1802.619	131	0.436667
896	1804.662	139	0.463333
897	1806.704	105	0.35
898	1808.746	113	0.376667
899	1810.788	125	0.416667
900	1812.830	103	0.343333
901	1814.873	134	0.446667
902	1816.915	127	0.423333
903	1818.957	112	0.373333
904	1820.999	120	0.4
905	1823.041	120	0.4
906	1825.083	116	0.386667
907	1827.126	110	0.366667
908	1829.168	105	0.35
909	1831.210	130	0.433333
910	1833.252	103	0.343333
911	1835.294	122	0.406667
912	1837.336	110	0.366667
913	1839.379	109	0.363333
914	1841.421	119	0.396667
915	1843.463	120	0.4
916	1845.505	108	0.36
917	1847.547	106	0.353333
918	1849.589	115	0.383333
919	1851.632	128	0.426667
920	1853.674	108	0.36
921	1855.716	122	0.406667
922	1857.758	101	0.336667
923	1859.800	102	0.34
924	1861.842	87	0.29
925	1863.885	108	0.36
926	1865.927	124	0.413333
927	1867.969	115	0.383333
928	1870.011	99	0.33
929	1872.053	111	0.37
930	1874.095	102	0.34
931	1876.138	93	0.31
932	1878.180	100	0.333333
933	1880.222	105	0.35
934	1882.264	104	0.346667
935	1884.306	114	0.38
936	1886.348	107	0.356667
937	1888.391	105	0.35
938	1890.433	117	0.39
939	1892.475	102	0.34
940	1894.517	106	0.353333
941	1896.559	119	0.396667
942	1898.601	123	0.41
943	1900.644	115	0.383333
944	1902.686	115	0.383333
945	1904.728	118	0.393333
946	1906.770	114	0.38
947	1908.812	104	0.346667
948	1910.854	104	0.346667
949	1912.897	113	0.376667
950	1914.939	107	0.356667
951	1916.981	103	0.343333
952	1919.023	111	0.37
953	1921.065	96	0.32
954	1923.107	104	0.346667
955	1925.150	91	0.303333
956	1927.192	101	0.336667
957	1929.234	116	0.386667
958	1931.276	104	0.346667
959	1933.318	105	0.35
960	1935.360	95	0.316667
961	1937.403	107	0.356667
962	1939.445	106	0.353333
963	1941.487	100	0.333333
964	1943.529	115	0.383333
965	1945.571	106	0.353333
966	1947.613	98	0.326667
967	1949.656	124	0.413333
968	1951.698	85	0.283333
969	1953.740	112	0.373333
970	1955.782	97	0.323333
971	1957.824	99	0.33
972	1959.866	95	0.316667
973	1961.909	87	0.29
974	1963.951	123	0.41
975	1965.993	95	0.316667
976	1968.035	113	0.376667
977	1970.077	87	0.29
978	1972.119	101	0.336667
979	1974.162	90	0.3
980	1976.204	106	0.353333
981	1978.246	89	0.296667
982	1980.288	106	0.353333
983	1982.330	108	0.36
984	1984.372	104	0.346667
985	1986.415	113	0.376667
986	1988.457	86	0.286667
987	1990.499	86	0.286667
988	1992.541	108	0.36
989	1994.583	91	0.303333
990	1996.625	105	0.35
991	1998.668	103	0.343333
992	2000.710	105	0.35
993	2002.752	108	0.36
994	2004.794	92	0.306667
995	2006.836	86	0.286667
996	2008.878	83	0.276667
997	2010.921	117	0.39
998	2012.963	72	0.24
999	2015.005	102	0.34
1000	2017.047	94	0.313333
1001	2019.089	103	0.343333
1002	2021.131	107	0.356667
1003	2023.174	103	0.343333
1004	2025.216	103	0.343333
1005	2027.258	109	0.363333
1006	2029.300	101	0.336667
1007	2031.342	118	0.393333
1008	2033.384	107	0.356667
1009	2035.427	117	0.39
1010	2037.469	98	0.326667
1011	2039.511	84	0.28
1012	2041.553	89	0.296667
1013	2043.595	110	0.366667
1014	2045.637	114	0.38
1015	2047.680	106	0.353333
1016	2049.722	95	0.316667
1017	2051.764	100	0.333333
1018	2053.806	92	0.306667
1019	2055.848	102	0.34
1020	2057.890	98	0.326667
1021	2059.933	80	0.266667
1022	2061.975	92	0.306667
1023	2064.017	102	0.34
1024	2066.059	96	0.32
